File: XRD/run1_nacl_vert.txt
angle [deg]	counting rate [cps]
20.00	19.99
20.40	14.72
20.80	15.21
21.20	13.97
21.60	10.92
22.00	12.20
22.40	13.15
22.80	15.40
23.20	11.26
23.60	10.19
24.00	12.49
24.40	15.16
24.80	10.24
25.20	11.87
25.60	17.65
26.00	11.73
26.40	14.36
26.80	13.99
27.20	15.24
27.60	47.95
28.00	68.82
28.40	56.97
28.80	28.69
29.20	21.89
29.60	19.04
30.00	15.61
30.40	56.24
30.80	255.62
31.20	368.60
31.60	212.69
32.00	70.58
32.40	9.45
32.80	12.08
33.20	14.46
33.60	8.51
34.00	12.17
34.40	11.68
34.80	15.96
35.20	12.19
35.60	10.72
36.00	8.25
36.40	9.51
36.80	13.44
37.20	9.54
37.60	8.99
38.00	7.72
38.40	3.98
38.80	8.21
39.20	8.91
39.60	5.96
40.00	6.01
40.40	8.47
40.80	8.53
41.20	9.05
41.60	8.01
42.00	5.23
42.40	9.49
42.80	6.73
43.20	7.02
43.60	4.72
44.00	9.23
44.40	8.46
44.80	9.17
45.20	5.03
45.60	7.01
46.00	6.71
46.40	6.02
46.80	5.26
47.20	8.96
47.60	5.49
48.00	3.98
48.40	4.49
48.80	6.51
49.20	5.25
49.60	5.28
50.00	7.72
50.40	6.26
50.80	5.99
51.20	5.49
51.60	8.49
52.00	2.24
52.40	2.74
52.80	3.98
53.20	5.01
53.60	5.00
54.00	4.71
54.40	8.34
54.80	5.29
55.20	5.97
55.60	6.96
56.00	4.97
56.40	8.76
56.80	8.49
57.20	6.28
57.60	2.75
58.00	13.55
58.40	42.49
58.80	39.91
59.20	20.44
59.60	9.95
60.00	5.99
60.40	7.99
60.80	7.24
61.20	5.71
61.60	6.29
62.00	7.22
62.40	5.23
62.80	7.95
63.20	6.48
63.60	5.49
64.00	7.02
64.40	6.24
64.80	8.43
65.20	52.83
65.60	183.91
66.00	215.75
66.40	91.33
66.80	20.24
67.20	9.46
67.60	6.45
68.00	7.25
68.40	5.95
68.80	10.99
69.20	4.73
69.60	11.50
70.00	3.24
70.40	4.01
70.80	9.79
71.20	6.00
71.60	6.70
72.00	5.31
72.40	4.26
72.80	4.24
73.20	3.27
73.60	9.63
74.00	7.20
74.40	5.96
74.80	5.73
75.20	4.49
75.60	4.24
76.00	6.47
76.40	7.07
76.80	7.54
77.20	5.52
77.60	4.52
78.00	5.76
78.40	4.97
78.80	6.73
79.20	3.48
79.60	3.98
80.00	4.28
80.40	4.98
80.80	4.74
81.20	6.99
81.60	6.27
82.00	6.03
82.40	4.50
82.80	4.24
83.20	6.03
83.60	2.01
84.00	0.00
84.40	0.00
84.80	0.00
85.00	0.74