File: XRD/run3_lif_vert.txt
angle [deg]	counting rate [cps]
20.00	5.94
20.30	10.95
20.50	9.99
20.70	7.48
20.90	14.96
21.10	6.96
21.30	11.99
21.50	5.98
21.70	6.99
21.90	9.57
22.10	9.46
22.30	10.57
22.50	7.94
22.70	12.54
22.90	8.51
23.10	6.94
23.30	7.53
23.50	8.44
23.70	10.48
23.90	8.99
24.10	10.49
24.30	11.62
24.50	12.11
24.70	6.56
24.90	6.03
25.10	9.48
25.30	10.04
25.50	7.52
25.70	4.47
25.90	8.44
26.10	10.43
26.30	6.02
26.50	6.94
26.70	5.01
26.90	4.51
27.10	5.96
27.30	8.46
27.50	4.00
27.70	11.05
27.90	8.95
28.10	10.94
28.30	8.99
28.50	9.57
28.70	9.01
28.90	9.47
29.10	6.99
29.30	5.99
29.50	5.97
29.70	4.96
29.90	6.44
30.10	5.51
30.30	7.02
30.50	9.48
30.70	7.50
30.90	9.49
31.10	7.92
31.30	7.00
31.50	8.09
31.70	5.98
31.90	7.47
32.10	9.55
32.30	8.95
32.50	9.50
32.70	8.49
32.90	8.51
33.10	6.00
33.30	8.52
33.50	5.00
33.70	5.00
33.90	3.01
34.10	4.50
34.30	11.06
34.50	5.47
34.70	10.02
34.90	7.99
35.10	7.99
35.30	6.95
35.50	7.47
35.70	4.50
35.90	6.60
36.10	8.97
36.30	3.47
36.50	9.48
36.70	6.03
36.90	10.47
37.10	11.50
37.30	6.57
37.50	5.00
37.70	6.51
37.90	7.54
38.10	7.00
38.30	8.99
38.50	6.53
38.70	10.96
38.90	20.04
39.10	19.76
39.30	32.74
39.50	43.42
39.70	37.86
39.90	30.36
40.10	23.82
40.30	19.40
40.50	7.50
40.70	12.55
40.90	9.99
41.10	8.58
41.30	9.54
41.50	8.03
41.70	13.03
41.90	10.51
42.10	10.04
42.30	8.98
42.50	10.04
42.70	10.49
42.90	9.57
43.10	9.05
43.30	18.52
43.50	28.23
43.70	57.95
43.90	117.57
44.10	218.57
44.30	241.03
44.50	192.29
44.70	131.20
44.90	73.15
45.10	47.78
45.30	17.88
45.50	15.56
45.70	11.98
45.90	7.01
46.10	8.96
46.30	10.01
46.50	7.98
46.70	8.49
46.90	8.55
47.10	7.54
47.30	8.57
47.50	8.97
47.70	9.42
47.90	10.45
48.10	10.41
48.30	10.06
48.50	6.94
48.70	8.51
48.90	10.48
49.10	8.49
49.30	8.98
49.50	8.46
49.70	8.98
49.90	11.50
50.10	6.48
50.30	8.94
50.50	5.50
50.70	9.53
50.90	7.97
51.10	7.07
51.30	12.54
51.50	9.49
51.70	6.99
51.90	7.00
52.10	9.52
52.30	9.48
52.50	7.47
52.70	10.54
52.90	5.97
53.10	7.48
53.30	6.99
53.50	7.49
53.70	7.05
53.90	6.01
54.10	4.98
54.30	10.96
54.50	6.00