File: XRD/run6_lif_vert.txt
angle [deg]	counting rate [cps]
20.00	12.00
20.40	8.49
20.80	8.19
21.20	7.23
21.60	10.43
22.00	10.33
22.40	13.69
22.80	8.75
23.20	8.44
23.60	9.51
24.00	8.27
24.40	8.23
24.80	12.22
25.20	7.97
25.60	4.51
26.00	6.52
26.40	6.47
26.80	13.07
27.20	5.01
27.60	6.27
28.00	5.82
28.40	3.28
28.80	10.83
29.20	6.00
29.60	4.50
30.00	8.48
30.40	8.47
30.80	5.81
31.20	9.74
31.60	10.72
32.00	5.74
32.40	7.23
32.80	5.72
33.20	7.31
33.60	11.39
34.00	7.99
34.40	2.97
34.80	5.80
35.20	6.01
35.60	7.93
36.00	5.23
36.40	10.76
36.80	8.46
37.20	9.27
37.60	8.50
38.00	8.04
38.40	9.00
38.80	9.52
39.20	25.38
39.60	32.18
40.00	27.31
40.40	12.43
40.80	11.05
41.20	10.00
41.60	3.26
42.00	11.54
42.40	6.98
42.80	11.19
43.20	17.24
43.60	32.05
44.00	138.42
44.40	209.06
44.80	123.28
45.20	34.62
45.60	11.16
46.00	11.56
46.40	11.48
46.80	6.05
47.20	8.57
47.60	11.74
48.00	0.00
48.40	6.27
48.80	8.25
49.20	8.26
49.60	6.23
50.00	10.48
50.40	5.20
50.80	5.73
51.20	5.46
51.60	7.49
52.00	5.73
52.40	9.71
52.80	10.02
53.20	6.75
53.60	8.24
54.00	6.78
54.40	11.10
54.80	6.72
55.20	6.00
55.60	5.57
56.00	6.71
56.40	8.04
56.80	6.73
57.20	4.27
57.60	10.21
58.00	2.47
58.40	7.06
58.80	6.49
59.20	8.71
59.60	6.24
60.00	3.48
60.40	7.74
60.80	5.29
61.20	6.76
61.60	5.50
62.00	8.79
62.40	7.04
62.80	10.73
63.20	7.08
63.60	7.26
64.00	5.49
64.40	10.16
64.80	7.45
65.20	9.53
65.60	9.78
66.00	9.71
66.40	9.46
66.80	5.23
67.20	5.51
67.60	3.25
68.00	9.99
68.40	13.54
68.80	9.03
69.20	5.52
69.60	5.71
70.00	11.60
70.40	5.72
70.80	7.47
71.20	11.77
71.60	11.96
72.00	7.52
72.40	9.24
72.80	5.94
73.20	10.45
73.60	10.67
74.00	3.49
74.40	6.96
74.80	9.61
75.20	8.83
75.60	6.05
76.00	6.32
76.40	5.77
76.80	6.77
77.20	7.48
77.60	7.92
78.00	8.24
78.40	6.96
78.80	8.03
79.20	5.75
79.60	7.99
80.00	12.34
80.40	7.00
80.80	13.79
81.20	9.76
81.60	8.48
82.00	11.82
82.40	11.15
82.80	9.01
83.20	3.50
83.60	6.49
84.00	10.54
84.40	7.91
84.80	14.25
85.20	15.72
85.60	18.68
86.00	39.03
86.40	61.05
86.80	82.49
87.20	60.85
87.60	16.36
88.00	13.65
88.40	15.88
88.80	16.57
89.20	12.74
89.60	7.49
90.00	8.54
90.40	5.72
90.80	5.98
91.20	14.39
91.60	10.42
92.00	13.28
92.40	12.71
92.80	11.46
93.20	10.50
93.60	9.71
94.00	8.54
94.40	8.26
94.80	14.65
95.20	8.24
95.60	12.03
96.00	15.04
96.40	16.96
96.80	8.27
97.20	14.63
97.60	21.45
98.00	65.36
98.40	236.81
98.80	528.72
99.20	538.28
99.40	341.09